
Microphone Calibration File, (10/16/99)
(F10.5,F10.4,F10.4,F10.5)
Probe mic #xxxxxx, preamp gain  xxxxx
Field mic #xxxxxx, sens=  xxxxx mV/Pa
      Freq       SPL     V-RMS Phas(/PI)
   0.00100 124.00000 -12.25300   0.00000
   0.00106 124.00000 -12.00900   0.00000
   0.00112 124.00000 -11.75400   0.00000
   0.00119 124.00000 -11.48700   0.00000
   0.00126 124.00000 -11.21200   0.00000
   0.00133 124.00000 -10.94200   0.00000
   0.00141 124.00000 -10.68500   0.00000
   0.00150 124.00000 -10.45000   0.00000
   0.00158 124.00000 -10.22900   0.00000
   0.00168 124.00000 -10.01900   0.00000
   0.00178 124.00000  -9.81700   0.00000
   0.00188 124.00000  -9.62600   0.00000
   0.00200 124.00000  -9.44900   0.00000
   0.00211 124.00000  -9.28800   0.00000
   0.00224 124.00000  -9.14100   0.00000
   0.00237 124.00000  -9.00800   0.00000
   0.00251 124.00000  -8.88200   0.00000
   0.00266 124.00000  -8.76800   0.00000
   0.00282 124.00000  -8.66600   0.00000
   0.00299 124.00000  -8.57300   0.00000
   0.00316 124.00000  -8.48300   0.00000
   0.00335 124.00000  -8.39800   0.00000
   0.00355 124.00000  -8.31900   0.00000
   0.00376 124.00000  -8.24800   0.00000
   0.00398 124.00000  -8.18300   0.00000
   0.00422 124.00000  -8.12800   0.00000
   0.00447 124.00000  -8.08400   0.00000
   0.00473 124.00000  -8.04800   0.00000
   0.00501 124.00000  -8.01500   0.00000
   0.00531 124.00000  -7.97800   0.00000
   0.00562 124.00000  -7.94500   0.00000
   0.00596 124.00000  -7.91300   0.00000
   0.00631 124.00000  -7.88800   0.00000
   0.00668 124.00000  -7.86300   0.00000
   0.00708 124.00000  -7.83700   0.00000
   0.00750 124.00000  -7.81200   0.00000
   0.00794 124.00000  -7.79100   0.00000
   0.00841 124.00000  -7.77700   0.00000
   0.00891 124.00000  -7.76300   0.00000
   0.00944 124.00000  -7.74800   0.00000
   0.01000 124.00000  -7.73300   0.00000
   0.01059 124.00000  -7.72000   0.00000
   0.01122 124.00000  -7.71300   0.00000
   0.01189 124.00000  -7.70000   0.00000
   0.01259 124.00000  -7.68700   0.00000
   0.01334 124.00000  -7.67300   0.00000
   0.01413 124.00000  -7.67200   0.00000
   0.01496 124.00000  -7.66900   0.00000
   0.01585 124.00000  -7.66200   0.00000
   0.01679 124.00000  -7.65000   0.00000
   0.01778 124.00000  -7.64200   0.00000
   0.01884 124.00000  -7.64100   0.00000
   0.01995 124.00000  -7.63900   0.00000
   0.02113 124.00000  -7.63800   0.00000
   0.02239 124.00000  -7.63300   0.00000
   0.02371 124.00000  -7.63100   0.00000
   0.02512 124.00000  -7.62700   0.00000
   0.02661 124.00000  -7.62400   0.00000
   0.02818 124.00000  -7.62100   0.00000
   0.02985 124.00000  -7.61800   0.00000
   0.03162 124.00000  -7.61500   0.00000
   0.03350 124.00000  -7.61200   0.00000
   0.03548 124.00000  -7.61000   0.00000
   0.03758 124.00000  -7.60900   0.00000
   0.03981 124.00000  -7.60700   0.00000
   0.04217 124.00000  -7.60400   0.00000
   0.04467 124.00000  -7.60100   0.00000
   0.04732 124.00000  -7.59900   0.00000
   0.05012 124.00000  -7.59800   0.00000
   0.05309 124.00000  -7.60000   0.00000
   0.05623 124.00000  -7.60100   0.00000
   0.05957 124.00000  -7.60100   0.00000
   0.06310 124.00000  -7.60100   0.00000
   0.06683 124.00000  -7.60100   0.00000
   0.07079 124.00000  -7.60100   0.00000
   0.07499 124.00000  -7.60100   0.00000
   0.07943 124.00000  -7.60200   0.00000
   0.08414 124.00000  -7.60300   0.00000
   0.08913 124.00000  -7.60400   0.00000
   0.09441 124.00000  -7.60600   0.00000
   0.10000 124.00000  -7.60700   0.00000
   0.10593 124.00000  -7.61000   0.00000
   0.11220 124.00000  -7.61000   0.00000
   0.11885 124.00000  -7.61000   0.00000
   0.12589 124.00000  -7.61100   0.00000
   0.13335 124.00000  -7.61100   0.00000
   0.14125 124.00000  -7.61100   0.00000
   0.14962 124.00000  -7.61100   0.00000
   0.15849 124.00000  -7.61200   0.00000
   0.16788 124.00000  -7.61300   0.00000
   0.17783 124.00000  -7.61400   0.00000
   0.18837 124.00000  -7.61600   0.00000
   0.19953 124.00000  -7.62100   0.00000
   0.21135 124.00000  -7.61700   0.00000
   0.22387 124.00000  -7.61600   0.00000
   0.23714 124.00000  -7.61800   0.00000
   0.25119 124.00000  -7.62000   0.00000
   0.26607 124.00000  -7.62000   0.00000
   0.28184 124.00000  -7.61800   0.00000
   0.29854 124.00000  -7.61700   0.00000
   0.31623 124.00000  -7.61700   0.00000
   0.33497 124.00000  -7.61400   0.00000
   0.35481 124.00000  -7.61400   0.00000
   0.37584 124.00000  -7.61400   0.00000
   0.39811 124.00000  -7.61500   0.00000
   0.42170 124.00000  -7.61500   0.00000
   0.44668 124.00000  -7.61200   0.00000
   0.47315 124.00000  -7.60900   0.00000
   0.50119 124.00000  -7.60500   0.00000
   0.53088 124.00000  -7.60100   0.00000
   0.56234 124.00000  -7.59700   0.00000
   0.59566 124.00000  -7.59500   0.00000
   0.63096 124.00000  -7.59000   0.00000
   0.66834 124.00000  -7.58400   0.00000
   0.70795 124.00000  -7.57900   0.00000
   0.74989 124.00000  -7.57300   0.00000
   0.79433 124.00000  -7.56700   0.00000
   0.84140 124.00000  -7.55900   0.00000
   0.89125 124.00000  -7.55100   0.00000
   0.94406 124.00000  -7.54100   0.00000
   1.00000 124.00000  -7.53200   0.00000
   1.05925 124.00000  -7.52400   0.00000
   1.12202 124.00000  -7.51700   0.00000
   1.18850 124.00000  -7.50900   0.00000
   1.25893 124.00000  -7.49300   0.00000
   1.33352 124.00000  -7.48300   0.00000
   1.41254 124.00000  -7.46900   0.00000
   1.49624 124.00000  -7.45400   0.00000
   1.58489 124.00000  -7.43000   0.00000
   1.67880 124.00000  -7.40400   0.00000
   1.77828 124.00000  -7.37100   0.00000
   1.88365 124.00000  -7.34400   0.00000
   1.99526 124.00000  -7.31000   0.00000
   2.11349 124.00000  -7.27700   0.00000
   2.23872 124.00000  -7.23500   0.00000
   2.37137 124.00000  -7.20000   0.00000
   2.51189 124.00000  -7.16200   0.00000
   2.66073 124.00000  -7.12400   0.00000
   2.81838 124.00000  -7.07300   0.00000
   2.98538 124.00000  -7.01600   0.00000
   3.16228 124.00000  -6.95300   0.00000
   3.34965 124.00000  -6.87900   0.00000
   3.54813 124.00000  -6.79200   0.00000
   3.75837 124.00000  -6.69100   0.00000
   3.98107 124.00000  -6.58400   0.00000
   4.21697 124.00000  -6.46700   0.00000
   4.46684 124.00000  -6.34900   0.00000
   4.73151 124.00000  -6.21600   0.00000
   5.01187 124.00000  -6.08000   0.00000
   5.30884 124.00000  -5.92100   0.00000
   5.62341 124.00000  -5.73400   0.00000
   5.95662 124.00000  -5.52700   0.00000
   6.30957 124.00000  -5.27900   0.00000
   6.68344 124.00000  -5.03800   0.00000
   7.07946 124.00000  -4.77800   0.00000
   7.49894 124.00000  -4.49400   0.00000
   7.94328 124.00000  -4.15000   0.00000
   8.41395 124.00000  -3.85200   0.00000
   8.91251 124.00000  -3.51600   0.00000
   9.44061 124.00000  -3.16300   0.00000
  10.00000 124.00000  -2.76100   0.00000
  10.59250 124.00000  -2.34000   0.00000
  11.22020 124.00000  -1.89200   0.00000
  11.88500 124.00000  -1.42700   0.00000
  12.58930 124.00000  -1.02200   0.00000
  13.33520 124.00000  -0.59800   0.00000
  14.12540 124.00000  -0.20700   0.00000
  14.96240 124.00000   0.14600   0.00000
  15.84890 124.00000   0.40300   0.00000
  16.78800 124.00000   0.63600   0.00000
  17.78280 124.00000   0.81800   0.00000
  18.83650 124.00000   0.95700   0.00000
  19.95260 124.00000   0.92900   0.00000
  21.13490 124.00000   0.84700   0.00000
  22.38720 124.00000   0.96100   0.00000
  23.71370 124.00000   1.00300   0.00000
  25.11890 124.00000   1.05200   0.00000
  26.60730 124.00000   1.11600   0.00000
  28.18380 124.00000   1.00700   0.00000
  29.85380 124.00000   0.95800   0.00000
  31.62280 124.00000   0.80400   0.00000
  33.49650 124.00000   0.82100   0.00000
  35.48130 124.00000   0.88900   0.00000
  37.58370 124.00000   0.99800   0.00000
  39.81070 124.00000   0.94700   0.00000
